# 
# 	Distance (microns)  Light Intensity (0-255)	Position (mm)
6.000000000000000000e+01 3.046153846153845990e+01 1.926153846153846132e+02
6.100000000000000000e+01 3.028615384615384443e+01 1.930769230769230660e+02
6.200000000000000000e+01 2.994000000000000128e+01 1.917692307692307736e+02
6.300000000000000000e+01 3.002538461538461689e+01 1.916153846153846132e+02
6.400000000000000000e+01 3.071000000000000085e+01 1.907692307692307736e+02
6.500000000000000000e+01 3.051769230769230745e+01 1.890769230769230660e+02
6.600000000000000000e+01 2.984230769230769198e+01 1.926923076923076792e+02
6.700000000000000000e+01 2.967692307692307807e+01 1.942307692307692264e+02
6.800000000000000000e+01 2.970230769230769141e+01 1.886153846153846132e+02
6.900000000000000000e+01 2.966923076923076863e+01 1.911538461538461604e+02
7.000000000000000000e+01 2.862538461538461476e+01 1.916923076923076792e+02
7.100000000000000000e+01 2.884846153846153882e+01 1.940769230769230660e+02
7.200000000000000000e+01 2.882846153846153925e+01 1.902307692307692264e+02
7.300000000000000000e+01 2.846000000000000085e+01 1.893076923076923208e+02
7.400000000000000000e+01 2.780076923076923023e+01 1.936923076923076792e+02
7.500000000000000000e+01 2.756846153846153769e+01 1.919230769230769340e+02
7.600000000000000000e+01 2.735461538461538566e+01 1.900769230769230660e+02
7.700000000000000000e+01 2.766461538461538439e+01 1.917692307692307736e+02
7.800000000000000000e+01 2.688615384615384585e+01 1.896923076923076792e+02
7.900000000000000000e+01 2.687846153846153641e+01 1.876923076923076792e+02
